# Pbox   1800.00  35 4095  0.0     0    1.0000 2.13729     4
# VJ2.2C  pw (us)  pwr  pwrf  dres  dmf  dcyc   B1max (kHz)  Stype
# ---------------------------------------------------------------
# Pxsim 0.0018000 1913.7834 0.000 15000.0 0.0000000 0.0000000 0.00
# data: pw (s) B1max (Hz) status sw (Hz) T1 (s)   T2 (s) RDC (Hz)
# ---------------------------------------------------------------
# Pbox.inp data :
# ~~~~~~~~~~~~~~~~~~~~~~~~~~~Waves~~~~~~~~~~~~~~~~~~~~~~~~~~~~~~~~~~
#   shape   bw(/pw)   ofs  st  ph  fla  trev  d1  d2   d0   wrp  php
# ~~~~~~~~~~~~~~~~~~~~~~~~~~~~~~~~~~~~~~~~~~~~~~~~~~~~~~~~~~~~~~~~~~
# { eburp1 2500.000 0.000 0  }
#
# type      = r          mod       = n          dres      = n         
# steps     = n          stepsize  = 10.00      attn      = i         
# refofs    = n          wrap      = n          sfrq      = n         
# sucyc     = d          reps      = 2          header    = y         
# bscor     = n          pad1      = n          pad2      = n         
# bsim      = n          T1        = n          T2        = n         
# rdc       = n          dcyc      = n          sw        = n         
#
# RF Calibration Data :  ref_pwr   = 36         ref_pw90  = 104.25
# ~~~~~~~~~~~~~~~~~~~~~
###
# ------------------- Shape data ------------------
# pwtot      = 0.0018000 (total pw, s)
# power      = 35 (power level, dB)
# pwrf       = 4095 (fine power)
# B1max      = 2.1373 (B1max, kHz)
# B1rms      = 0.8645 (B1[RMS], kHz)
# nptot      = 180 (total number of steps)
# stepsize   = 10.00 (length of a single step, us)
# maxamp     = 916.9 (max amplitude)
# ------------------------------------------------- 
#      phase      amplitude   length     gate 
# ------------------------------------------------- 
        0.00      1023.00      0.0        0
       0.000        1.676      1.0        1
     180.000        3.817      1.0        1
     180.000       10.565      1.0        1
     180.000       16.641      1.0        1
     180.000       22.117      1.0        1
     180.000       27.066      1.0        1
     180.000       31.557      1.0        1
     180.000       35.660      1.0        1
     180.000       39.436      1.0        1
     180.000       42.943      1.0        1
     180.000       46.233      1.0        1
     180.000       49.348      1.0        1
     180.000       52.321      1.0        1
     180.000       55.178      1.0        1
     180.000       57.933      1.0        1
     180.000       60.591      1.0        1
     180.000       63.149      1.0        1
     180.000       65.593      1.0        1
     180.000       67.900      1.0        1
     180.000       70.042      1.0        1
     180.000       71.980      1.0        1
     180.000       73.673      1.0        1
     180.000       75.070      1.0        1
     180.000       76.119      1.0        1
     180.000       76.763      1.0        1
     180.000       76.941      1.0        1
     180.000       76.592      1.0        1
     180.000       75.657      1.0        1
     180.000       74.076      1.0        1
     180.000       71.792      1.0        1
     180.000       68.755      1.0        1
     180.000       64.920      1.0        1
     180.000       60.252      1.0        1
     180.000       54.724      1.0        1
     180.000       48.323      1.0        1
     180.000       41.046      1.0        1
     180.000       32.905      1.0        1
     180.000       23.925      1.0        1
     180.000       14.145      1.0        1
     180.000        3.616      1.0        1
       0.000        5.601      1.0        1
       0.000       17.435      1.0        1
       0.000       29.806      1.0        1
       0.000       42.630      1.0        1
       0.000       55.820      1.0        1
       0.000       69.287      1.0        1
       0.000       82.943      1.0        1
       0.000       96.703      1.0        1
       0.000      110.483      1.0        1
       0.000      124.206      1.0        1
       0.000      137.793      1.0        1
       0.000      151.169      1.0        1
       0.000      164.261      1.0        1
       0.000      176.992      1.0        1
       0.000      189.282      1.0        1
       0.000      201.048      1.0        1
       0.000      212.197      1.0        1
       0.000      222.628      1.0        1
       0.000      232.234      1.0        1
       0.000      240.895      1.0        1
       0.000      248.486      1.0        1
       0.000      254.873      1.0        1
       0.000      259.922      1.0        1
       0.000      263.496      1.0        1
       0.000      265.461      1.0        1
       0.000      265.690      1.0        1
       0.000      264.070      1.0        1
       0.000      260.499      1.0        1
       0.000      254.895      1.0        1
       0.000      247.194      1.0        1
       0.000      237.353      1.0        1
       0.000      225.352      1.0        1
       0.000      211.187      1.0        1
       0.000      194.875      1.0        1
       0.000      176.447      1.0        1
       0.000      155.943      1.0        1
       0.000      133.413      1.0        1
       0.000      108.908      1.0        1
       0.000       82.482      1.0        1
       0.000       54.187      1.0        1
       0.000       24.069      1.0        1
     180.000        5.824      1.0        1
     180.000       39.447      1.0        1
     180.000       74.749      1.0        1
     180.000      111.671      1.0        1
     180.000      150.137      1.0        1
     180.000      190.049      1.0        1
     180.000      231.274      1.0        1
     180.000      273.642      1.0        1
     180.000      316.935      1.0        1
     180.000      360.881      1.0        1
     180.000      405.151      1.0        1
     180.000      449.361      1.0        1
     180.000      493.069      1.0        1
     180.000      535.782      1.0        1
     180.000      576.963      1.0        1
     180.000      616.047      1.0        1
     180.000      652.446      1.0        1
     180.000      685.576      1.0        1
     180.000      714.864      1.0        1
     180.000      739.775      1.0        1
     180.000      759.824      1.0        1
     180.000      774.595      1.0        1
     180.000      783.754      1.0        1
     180.000      787.064      1.0        1
     180.000      784.387      1.0        1
     180.000      775.692      1.0        1
     180.000      761.054      1.0        1
     180.000      740.645      1.0        1
     180.000      714.729      1.0        1
     180.000      683.648      1.0        1
     180.000      647.805      1.0        1
     180.000      607.647      1.0        1
     180.000      563.645      1.0        1
     180.000      516.279      1.0        1
     180.000      466.016      1.0        1
     180.000      413.299      1.0        1
     180.000      358.531      1.0        1
     180.000      302.069      1.0        1
     180.000      244.220      1.0        1
     180.000      185.241      1.0        1
     180.000      125.341      1.0        1
     180.000       64.691      1.0        1
     180.000        3.438      1.0        1
       0.000       56.288      1.0        1
       0.000      118.353      1.0        1
       0.000      180.605      1.0        1
       0.000      242.861      1.0        1
       0.000      304.897      1.0        1
       0.000      366.429      1.0        1
       0.000      427.120      1.0        1
       0.000      486.568      1.0        1
       0.000      544.314      1.0        1
       0.000      599.847      1.0        1
       0.000      652.617      1.0        1
       0.000      702.050      1.0        1
       0.000      747.567      1.0        1
       0.000      788.602      1.0        1
       0.000      824.623      1.0        1
       0.000      855.158      1.0        1
       0.000      879.806      1.0        1
       0.000      898.262      1.0        1
       0.000      910.326      1.0        1
       0.000      915.914      1.0        1
       0.000      915.065      1.0        1
       0.000      907.938      1.0        1
       0.000      894.810      1.0        1
       0.000      876.064      1.0        1
       0.000      852.183      1.0        1
       0.000      823.726      1.0        1
       0.000      791.312      1.0        1
       0.000      755.603      1.0        1
       0.000      717.279      1.0        1
       0.000      677.020      1.0        1
       0.000      635.487      1.0        1
       0.000      593.302      1.0        1
       0.000      551.040      1.0        1
       0.000      509.212      1.0        1
       0.000      468.261      1.0        1
       0.000      428.556      1.0        1
       0.000      390.392      1.0        1
       0.000      353.990      1.0        1
       0.000      319.506      1.0        1
       0.000      287.033      1.0        1
       0.000      256.609      1.0        1
       0.000      228.232      1.0        1
       0.000      201.861      1.0        1
       0.000      177.429      1.0        1
       0.000      154.853      1.0        1
       0.000      134.037      1.0        1
       0.000      114.880      1.0        1
       0.000       97.280      1.0        1
       0.000       81.139      1.0        1
       0.000       66.362      1.0        1
       0.000       52.860      1.0        1
       0.000       40.550      1.0        1
       0.000       29.351      1.0        1
       0.000       19.188      1.0        1
       0.000        9.987      1.0        1
       0.000        1.676      1.0        1
