# Pbox   1950.00  45 4095  0.0     0    1.0000 6.75871     6
# VJ2.2C  pw (us)  pwr  pwrf  dres  dmf  dcyc   B1max (kHz)  Stype
# ---------------------------------------------------------------
# Pxsim 0.0019500 6191.8591 0.000 45920.0 0.0000000 0.0000000 0.00
# data: pw (s) B1max (Hz) status sw (Hz) T1 (s)   T2 (s) RDC (Hz)
# ---------------------------------------------------------------
# Pbox.inp data :
# ~~~~~~~~~~~~~~~~~~~~~~~~~~~Waves~~~~~~~~~~~~~~~~~~~~~~~~~~~~~~~~~~
#   shape   bw(/pw)   ofs  st  ph  fla  trev  d1  d2   d0   wrp  php
# ~~~~~~~~~~~~~~~~~~~~~~~~~~~~~~~~~~~~~~~~~~~~~~~~~~~~~~~~~~~~~~~~~~
# { reburp 2500.000 0.000 0  }
# { reburp 2500.000 15460.000 0  }
#
# type      = r          mod       = n          dres      = n         
# steps     = n          stepsize  = 10.00      attn      = i         
# refofs    = n          wrap      = n          sfrq      = n         
# sucyc     = d          reps      = 2          header    = y         
# bscor     = n          pad1      = n          pad2      = n         
# bsim      = n          T1        = n          T2        = n         
# rdc       = n          dcyc      = n          sw        = n         
#
# RF Calibration Data :  ref_pwr   = 36         ref_pw90  = 104.25
# ~~~~~~~~~~~~~~~~~~~~~
###
# ------------------- Shape data ------------------
# pwtot      = 0.0019500 (total pw, s)
# power      = 45 (power level, dB)
# pwrf       = 4095 (fine power)
# B1max      = 6.7587 (B1max, kHz)
# B1rms      = 1.2862 (B1[RMS], kHz)
# nptot      = 195 (total number of steps)
# stepsize   = 10.00 (length of a single step, us)
# maxamp     = 938.1 (max amplitude)
# minimum phase increment = 0.00 deg
# maximum phase increment = 55.66 deg
# ------------------------------------------------- 
#      phase      amplitude   length     gate 
# ------------------------------------------------- 
        0.00      1023.00      0.0        0
     167.454       69.475      1.0        1
     195.282       67.899      1.0        1
     223.110       49.520      1.0        1
     250.938       20.490      1.0        1
      98.766        8.392      1.0        1
     126.594       33.052      1.0        1
     154.422       46.536      1.0        1
     182.250       47.635      1.0        1
     210.078       38.099      1.0        1
     237.906       21.421      1.0        1
     265.734        1.940      1.0        1
     113.562       13.727      1.0        1
     141.390       25.407      1.0        1
     169.218       28.512      1.0        1
     197.046       23.234      1.0        1
     224.874       12.895      1.0        1
     252.702        2.829      1.0        1
     100.530        0.000      1.0        1
     308.358        0.660      1.0        1
     336.186        8.934      1.0        1
       4.014       17.833      1.0        1
      31.842       21.499      1.0        1
      59.670       15.933      1.0        1
      87.498        0.746      1.0        1
     295.326       18.641      1.0        1
     323.154       40.169      1.0        1
     350.982       55.026      1.0        1
      18.810       57.569      1.0        1
      46.638       44.959      1.0        1
      74.466       18.250      1.0        1
     282.294       15.307      1.0        1
     310.122       51.111      1.0        1
     337.950       77.325      1.0        1
       5.778       85.849      1.0        1
      33.606       73.165      1.0        1
      61.434       41.873      1.0        1
      89.262        0.147      1.0        1
     297.090       38.780      1.0        1
     324.918       68.171      1.0        1
     352.746       79.051      1.0        1
      20.574       70.111      1.0        1
      48.402       45.719      1.0        1
      76.230       14.229      1.0        1
     284.058       12.795      1.0        1
     311.886       31.580      1.0        1
     339.714       36.512      1.0        1
       7.542       29.117      1.0        1
      35.370       15.307      1.0        1
      63.198        3.019      1.0        1
      91.026        0.000      1.0        0
     118.854        6.212      1.0        1
     146.682       21.961      1.0        1
     174.510       39.070      1.0        1
     202.338       48.185      1.0        1
     230.166       41.375      1.0        1
     257.994       15.455      1.0        1
     105.822       24.071      1.0        1
     133.650       71.192      1.0        1
     161.478      109.811      1.0        1
     189.306      125.909      1.0        1
     217.134      110.275      1.0        1
     244.962       62.289      1.0        1
      92.790        6.702      1.0        1
     120.618       83.246      1.0        1
     148.446      144.593      1.0        1
     176.274      173.025      1.0        1
     204.102      159.567      1.0        1
     231.930      107.088      1.0        1
     259.758       29.668      1.0        1
     107.586       49.577      1.0        1
     135.414      112.903      1.0        1
     163.242      142.574      1.0        1
     191.070      133.686      1.0        1
     218.898       93.645      1.0        1
     246.726       39.629      1.0        1
      94.554        5.405      1.0        1
     122.382       28.441      1.0        1
     150.210       21.224      1.0        1
     358.038        6.482      1.0        1
      25.866       38.884      1.0        1
      53.694       49.266      1.0        1
      81.522       18.044      1.0        1
     289.350       57.698      1.0        1
     317.178      166.840      1.0        1
     345.006      273.513      1.0        1
      12.834      333.574      1.0        1
      40.662      306.588      1.0        1
      68.490      171.612      1.0        1
     276.318       58.230      1.0        1
     304.146      339.581      1.0        1
     331.974      594.718      1.0        1
     359.802      739.599      1.0        1
      27.630      709.392      1.0        1
      55.458      484.480      1.0        1
      83.286      104.390      1.0        1
     291.114      335.964      1.0        1
     318.942      720.271      1.0        1
     346.770      937.117      1.0        1
      14.598      924.657      1.0        1
      42.426      689.485      1.0        1
      70.254      303.551      1.0        1
     278.082      119.375      1.0        1
     305.910      469.286      1.0        1
     333.738      663.158      1.0        1
       1.566      673.603      1.0        1
      29.394      527.655      1.0        1
      57.222      290.390      1.0        1
      85.050       39.620      1.0        1
     292.878      156.641      1.0        1
     320.706      264.563      1.0        1
     348.534      277.517      1.0        1
      16.362      218.563      1.0        1
      44.190      126.025      1.0        1
      72.018       38.878      1.0        1
     279.846       13.517      1.0        1
     307.674       26.090      1.0        1
     335.502        5.812      1.0        1
     183.330       24.565      1.0        1
     211.158       46.043      1.0        1
     238.986       40.566      1.0        1
     266.814        4.715      1.0        1
     114.642       49.705      1.0        1
     142.470      107.836      1.0        1
     170.298      146.797      1.0        1
     198.126      150.995      1.0        1
     225.954      115.380      1.0        1
     253.782       47.173      1.0        1
     101.610       34.277      1.0        1
     129.438      110.741      1.0        1
     157.266      159.844      1.0        1
     185.094      169.179      1.0        1
     212.922      137.847      1.0        1
     240.750       76.317      1.0        1
     268.578        2.711      1.0        1
     116.406       61.074      1.0        1
     144.234      103.349      1.0        1
     172.062      114.745      1.0        1
     199.890       97.349      1.0        1
     227.718       60.865      1.0        1
     255.546       18.745      1.0        1
     103.374       14.302      1.0        1
     131.202       34.028      1.0        1
     159.030       36.589      1.0        1
     186.858       26.281      1.0        1
     214.686       11.288      1.0        1
     242.514        0.280      1.0        1
     270.342        0.000      1.0        0
     298.170        8.441      1.0        1
     325.998       24.186      1.0        1
     353.826       38.760      1.0        1
      21.654       44.355      1.0        1
      49.482       35.896      1.0        1
      77.310       13.055      1.0        1
     285.138       17.377      1.0        1
     312.966       50.769      1.0        1
     340.794       75.206      1.0        1
       8.622       82.571      1.0        1
      36.450       69.266      1.0        1
      64.278       37.665      1.0        1
     272.106        2.295      1.0        1
     299.934       43.435      1.0        1
     327.762       72.835      1.0        1
     355.590       83.256      1.0        1
      23.418       73.205      1.0        1
      51.246       46.940      1.0        1
      79.074       12.624      1.0        1
     286.902       18.461      1.0        1
     314.730       42.544      1.0        1
     342.558       53.118      1.0        1
      10.386       49.603      1.0        1
      38.214       35.075      1.0        1
      66.042       15.237      1.0        1
     273.870        1.263      1.0        1
     301.698       12.917      1.0        1
     329.526       15.271      1.0        1
     357.354        9.847      1.0        1
      25.182        1.421      1.0        1
     233.010        2.219      1.0        1
     260.838        1.050      1.0        1
     108.666        5.275      1.0        1
     136.494       17.385      1.0        1
     164.322       27.925      1.0        1
     192.150       32.037      1.0        1
     219.978       27.232      1.0        1
     247.806       13.930      1.0        1
      95.634        3.143      1.0        1
     123.462       23.914      1.0        1
     151.290       41.689      1.0        1
     179.118       51.694      1.0        1
     206.946       49.919      1.0        1
     234.774       34.546      1.0        1
     262.602        7.473      1.0        1
     110.430       23.156      1.0        1
     138.258       52.294      1.0        1
     166.086       69.080      1.0        1
