# Pbox   1950.00  39 4095  0.0     0    1.0000 3.38738     4
# VJ2.2C  pw (us)  pwr  pwrf  dres  dmf  dcyc   B1max (kHz)  Stype
# ---------------------------------------------------------------
# Pxsim 0.0019500 3180.3383 0.000 15000.0 0.0000000 0.0000000 0.00
# data: pw (s) B1max (Hz) status sw (Hz) T1 (s)   T2 (s) RDC (Hz)
# ---------------------------------------------------------------
# Pbox.inp data :
# ~~~~~~~~~~~~~~~~~~~~~~~~~~~Waves~~~~~~~~~~~~~~~~~~~~~~~~~~~~~~~~~~
#   shape   bw(/pw)   ofs  st  ph  fla  trev  d1  d2   d0   wrp  php
# ~~~~~~~~~~~~~~~~~~~~~~~~~~~~~~~~~~~~~~~~~~~~~~~~~~~~~~~~~~~~~~~~~~
# { reburp 2500.000 0.000 0  }
#
# type      = r          mod       = n          dres      = n         
# steps     = n          stepsize  = 10.00      attn      = i         
# refofs    = n          wrap      = n          sfrq      = n         
# sucyc     = d          reps      = 2          header    = y         
# bscor     = n          pad1      = n          pad2      = n         
# bsim      = n          T1        = n          T2        = n         
# rdc       = n          dcyc      = n          sw        = n         
#
# RF Calibration Data :  ref_pwr   = 36         ref_pw90  = 104.25
# ~~~~~~~~~~~~~~~~~~~~~
###
# ------------------- Shape data ------------------
# pwtot      = 0.0019500 (total pw, s)
# power      = 39 (power level, dB)
# pwrf       = 4095 (fine power)
# B1max      = 3.3874 (B1max, kHz)
# B1rms      = 0.9094 (B1[RMS], kHz)
# nptot      = 195 (total number of steps)
# stepsize   = 10.00 (length of a single step, us)
# maxamp     = 961.4 (max amplitude)
# ------------------------------------------------- 
#      phase      amplitude   length     gate 
# ------------------------------------------------- 
        0.00      1023.00      0.0        0
     180.000       71.028      1.0        1
     180.000       70.256      1.0        1
     180.000       68.037      1.0        1
     180.000       64.646      1.0        1
     180.000       60.480      1.0        1
     180.000       55.985      1.0        1
     180.000       51.575      1.0        1
     180.000       47.557      1.0        1
     180.000       44.077      1.0        1
     180.000       41.100      1.0        1
     180.000       38.430      1.0        1
     180.000       35.755      1.0        1
     180.000       32.714      1.0        1
     180.000       28.971      1.0        1
     180.000       24.288      1.0        1
     180.000       18.561      1.0        1
     180.000       11.846      1.0        1
     180.000        4.337      1.0        1
       0.000        1.669      1.0        1
       0.000        9.833      1.0        1
       0.000       17.834      1.0        1
       0.000       25.423      1.0        1
       0.000       32.452      1.0        1
       0.000       38.891      1.0        1
       0.000       44.805      1.0        1
       0.000       50.324      1.0        1
       0.000       55.592      1.0        1
       0.000       60.727      1.0        1
       0.000       65.777      1.0        1
       0.000       70.709      1.0        1
       0.000       75.403      1.0        1
       0.000       79.674      1.0        1
       0.000       83.306      1.0        1
       0.000       86.085      1.0        1
       0.000       87.837      1.0        1
       0.000       88.449      1.0        1
       0.000       87.878      1.0        1
       0.000       86.147      1.0        1
       0.000       83.326      1.0        1
       0.000       79.506      1.0        1
       0.000       74.776      1.0        1
       0.000       69.204      1.0        1
       0.000       62.828      1.0        1
       0.000       55.656      1.0        1
       0.000       47.683      1.0        1
       0.000       38.897      1.0        1
       0.000       29.308      1.0        1
       0.000       18.951      1.0        1
       0.000        7.893      1.0        1
     180.000        1.766      1.0        1
     180.000       13.909      1.0        1
     180.000       26.412      1.0        1
     180.000       39.160      1.0        1
     180.000       52.050      1.0        1
     180.000       64.996      1.0        1
     180.000       77.920      1.0        1
     180.000       90.737      1.0        1
     180.000      103.340      1.0        1
     180.000      115.587      1.0        1
     180.000      127.297      1.0        1
     180.000      138.247      1.0        1
     180.000      148.188      1.0        1
     180.000      156.860      1.0        1
     180.000      164.019      1.0        1
     180.000      169.449      1.0        1
     180.000      172.980      1.0        1
     180.000      174.486      1.0        1
     180.000      173.874      1.0        1
     180.000      171.072      1.0        1
     180.000      166.000      1.0        1
     180.000      158.553      1.0        1
     180.000      148.586      1.0        1
     180.000      135.915      1.0        1
     180.000      120.323      1.0        1
     180.000      101.582      1.0        1
     180.000       79.480      1.0        1
     180.000       53.843      1.0        1
     180.000       24.547      1.0        1
       0.000        6.468      1.0        1
       0.000       43.220      1.0        1
       0.000       83.693      1.0        1
       0.000      127.868      1.0        1
       0.000      175.734      1.0        1
       0.000      227.288      1.0        1
       0.000      282.515      1.0        1
       0.000      341.333      1.0        1
       0.000      403.525      1.0        1
       0.000      468.648      1.0        1
       0.000      535.956      1.0        1
       0.000      604.330      1.0        1
       0.000      672.256      1.0        1
       0.000      737.849      1.0        1
       0.000      798.933      1.0        1
       0.000      853.183      1.0        1
       0.000      898.300      1.0        1
       0.000      932.212      1.0        1
       0.000      953.270      1.0        1
       0.000      960.412      1.0        1
       0.000      953.270      1.0        1
       0.000      932.212      1.0        1
       0.000      898.300      1.0        1
       0.000      853.183      1.0        1
       0.000      798.933      1.0        1
       0.000      737.849      1.0        1
       0.000      672.256      1.0        1
       0.000      604.330      1.0        1
       0.000      535.956      1.0        1
       0.000      468.648      1.0        1
       0.000      403.525      1.0        1
       0.000      341.333      1.0        1
       0.000      282.515      1.0        1
       0.000      227.288      1.0        1
       0.000      175.734      1.0        1
       0.000      127.868      1.0        1
       0.000       83.693      1.0        1
       0.000       43.220      1.0        1
       0.000        6.468      1.0        1
     180.000       24.547      1.0        1
     180.000       53.843      1.0        1
     180.000       79.480      1.0        1
     180.000      101.582      1.0        1
     180.000      120.323      1.0        1
     180.000      135.915      1.0        1
     180.000      148.586      1.0        1
     180.000      158.553      1.0        1
     180.000      166.000      1.0        1
     180.000      171.072      1.0        1
     180.000      173.874      1.0        1
     180.000      174.486      1.0        1
     180.000      172.980      1.0        1
     180.000      169.449      1.0        1
     180.000      164.019      1.0        1
     180.000      156.860      1.0        1
     180.000      148.188      1.0        1
     180.000      138.247      1.0        1
     180.000      127.297      1.0        1
     180.000      115.587      1.0        1
     180.000      103.340      1.0        1
     180.000       90.737      1.0        1
     180.000       77.920      1.0        1
     180.000       64.996      1.0        1
     180.000       52.050      1.0        1
     180.000       39.160      1.0        1
     180.000       26.412      1.0        1
     180.000       13.909      1.0        1
     180.000        1.766      1.0        1
       0.000        7.893      1.0        1
       0.000       18.951      1.0        1
       0.000       29.308      1.0        1
       0.000       38.897      1.0        1
       0.000       47.683      1.0        1
       0.000       55.656      1.0        1
       0.000       62.828      1.0        1
       0.000       69.204      1.0        1
       0.000       74.776      1.0        1
       0.000       79.506      1.0        1
       0.000       83.326      1.0        1
       0.000       86.147      1.0        1
       0.000       87.878      1.0        1
       0.000       88.449      1.0        1
       0.000       87.837      1.0        1
       0.000       86.085      1.0        1
       0.000       83.306      1.0        1
       0.000       79.674      1.0        1
       0.000       75.403      1.0        1
       0.000       70.709      1.0        1
       0.000       65.777      1.0        1
       0.000       60.727      1.0        1
       0.000       55.592      1.0        1
       0.000       50.324      1.0        1
       0.000       44.805      1.0        1
       0.000       38.891      1.0        1
       0.000       32.452      1.0        1
       0.000       25.423      1.0        1
       0.000       17.834      1.0        1
       0.000        9.833      1.0        1
       0.000        1.669      1.0        1
     180.000        4.337      1.0        1
     180.000       11.846      1.0        1
     180.000       18.561      1.0        1
     180.000       24.288      1.0        1
     180.000       28.971      1.0        1
     180.000       32.714      1.0        1
     180.000       35.755      1.0        1
     180.000       38.430      1.0        1
     180.000       41.100      1.0        1
     180.000       44.077      1.0        1
     180.000       47.557      1.0        1
     180.000       51.575      1.0        1
     180.000       55.985      1.0        1
     180.000       60.480      1.0        1
     180.000       64.646      1.0        1
     180.000       68.037      1.0        1
     180.000       70.256      1.0        1
     180.000       71.028      1.0        1
